ENVI ASCII Plot File [Mon Jan 05 11:29:35 2015]
Column 1: Wavelength
Column 2: closedRSS~~1
  350.00000  0.01124
  351.00000  0.01058
  352.00000  0.01003
  353.00000  0.01034
  354.00000  0.01060
  355.00000  0.01084
  356.00000  0.01114
  357.00000  0.01140
  358.00000  0.01168
  359.00000  0.01198
  360.00000  0.01226
  361.00000  0.01256
  362.00000  0.01280
  363.00000  0.01315
  364.00000  0.01349
  365.00000  0.01380
  366.00000  0.01408
  367.00000  0.01444
  368.00000  0.01481
  369.00000  0.01518
  370.00000  0.01553
  371.00000  0.01598
  372.00000  0.01626
  373.00000  0.01672
  374.00000  0.01708
  375.00000  0.01722
  376.00000  0.01767
  377.00000  0.01816
  378.00000  0.01864
  379.00000  0.01910
  380.00000  0.01928
  381.00000  0.01969
  382.00000  0.02020
  383.00000  0.02066
  384.00000  0.02106
  385.00000  0.02146
  386.00000  0.02203
  387.00000  0.02243
  388.00000  0.02282
  389.00000  0.02331
  390.00000  0.02376
  391.00000  0.02400
  392.00000  0.02441
  393.00000  0.02470
  394.00000  0.02518
  395.00000  0.02526
  396.00000  0.02578
  397.00000  0.02634
  398.00000  0.02595
  399.00000  0.02646
  400.00000  0.02668
  401.00000  0.02710
  402.00000  0.02748
  403.00000  0.02780
  404.00000  0.02781
  405.00000  0.02794
  406.00000  0.02795
  407.00000  0.02835
  408.00000  0.02857
  409.00000  0.02847
  410.00000  0.02880
  411.00000  0.02885
  412.00000  0.02905
  413.00000  0.02838
  414.00000  0.02878
  415.00000  0.02896
  416.00000  0.02923
  417.00000  0.02960
  418.00000  0.02964
  419.00000  0.02988
  420.00000  0.02965
  421.00000  0.02988
  422.00000  0.03021
  423.00000  0.03050
  424.00000  0.03039
  425.00000  0.03073
  426.00000  0.03096
  427.00000  0.03127
  428.00000  0.03159
  429.00000  0.03200
  430.00000  0.03235
  431.00000  0.03255
  432.00000  0.03280
  433.00000  0.03320
  434.00000  0.03342
  435.00000  0.03350
  436.00000  0.03352
  437.00000  0.03372
  438.00000  0.03398
  439.00000  0.03415
  440.00000  0.03458
  441.00000  0.03499
  442.00000  0.03509
  443.00000  0.03524
  444.00000  0.03558
  445.00000  0.03610
  446.00000  0.03616
  447.00000  0.03591
  448.00000  0.03639
  449.00000  0.03679
  450.00000  0.03685
  451.00000  0.03697
  452.00000  0.03747
  453.00000  0.03797
  454.00000  0.03830
  455.00000  0.03850
  456.00000  0.03902
  457.00000  0.03945
  458.00000  0.03977
  459.00000  0.04007
  460.00000  0.04033
  461.00000  0.04065
  462.00000  0.04087
  463.00000  0.04119
  464.00000  0.04171
  465.00000  0.04215
  466.00000  0.04248
  467.00000  0.04294
  468.00000  0.04333
  469.00000  0.04366
  470.00000  0.04387
  471.00000  0.04422
  472.00000  0.04454
  473.00000  0.04512
  474.00000  0.04533
  475.00000  0.04558
  476.00000  0.04588
  477.00000  0.04616
  478.00000  0.04641
  479.00000  0.04657
  480.00000  0.04712
  481.00000  0.04746
  482.00000  0.04781
  483.00000  0.04798
  484.00000  0.04850
  485.00000  0.04885
  486.00000  0.04885
  487.00000  0.04902
  488.00000  0.04923
  489.00000  0.04957
  490.00000  0.04969
  491.00000  0.04962
  492.00000  0.04955
  493.00000  0.04953
  494.00000  0.04956
  495.00000  0.04963
  496.00000  0.04947
  497.00000  0.04917
  498.00000  0.04916
  499.00000  0.04902
  500.00000  0.04933
  501.00000  0.04889
  502.00000  0.04834
  503.00000  0.04787
  504.00000  0.04777
  505.00000  0.04752
  506.00000  0.04687
  507.00000  0.04622
  508.00000  0.04554
  509.00000  0.04503
  510.00000  0.04420
  511.00000  0.04296
  512.00000  0.04173
  513.00000  0.04173
  514.00000  0.04144
  515.00000  0.04117
  516.00000  0.04157
  517.00000  0.04174
  518.00000  0.04186
  519.00000  0.04182
  520.00000  0.04200
  521.00000  0.04202
  522.00000  0.04210
  523.00000  0.04224
  524.00000  0.04256
  525.00000  0.04286
  526.00000  0.04269
  527.00000  0.04259
  528.00000  0.04273
  529.00000  0.04293
  530.00000  0.04293
  531.00000  0.04282
  532.00000  0.04265
  533.00000  0.04275
  534.00000  0.04279
  535.00000  0.04284
  536.00000  0.04262
  537.00000  0.04235
  538.00000  0.04248
  539.00000  0.04243
  540.00000  0.04262
  541.00000  0.04230
  542.00000  0.04211
  543.00000  0.04181
  544.00000  0.04172
  545.00000  0.04150
  546.00000  0.04082
  547.00000  0.04029
  548.00000  0.03992
  549.00000  0.03971
  550.00000  0.03926
  551.00000  0.03871
  552.00000  0.03809
  553.00000  0.03832
  554.00000  0.03834
  555.00000  0.03837
  556.00000  0.03840
  557.00000  0.03826
  558.00000  0.03825
  559.00000  0.03813
  560.00000  0.03824
  561.00000  0.03780
  562.00000  0.03743
  563.00000  0.03746
  564.00000  0.03757
  565.00000  0.03783
  566.00000  0.03709
  567.00000  0.03643
  568.00000  0.03613
  569.00000  0.03602
  570.00000  0.03569
  571.00000  0.03487
  572.00000  0.03399
  573.00000  0.03353
  574.00000  0.03296
  575.00000  0.03239
  576.00000  0.03108
  577.00000  0.02978
  578.00000  0.02908
  579.00000  0.02827
  580.00000  0.02757
  581.00000  0.02584
  582.00000  0.02428
  583.00000  0.02308
  584.00000  0.02194
  585.00000  0.02092
  586.00000  0.01929
  587.00000  0.01780
  588.00000  0.01679
  589.00000  0.01587
  590.00000  0.01499
  591.00000  0.01349
  592.00000  0.01212
  593.00000  0.01138
  594.00000  0.01066
  595.00000  0.00999
  596.00000  0.00858
  597.00000  0.00739
  598.00000  0.00661
  599.00000  0.00592
  600.00000  0.00533
  601.00000  0.00470
  602.00000  0.00418
  603.00000  0.00404
  604.00000  0.00391
  605.00000  0.00379
  606.00000  0.00370
  607.00000  0.00362
  608.00000  0.00360
  609.00000  0.00359
  610.00000  0.00357
  611.00000  0.00354
  612.00000  0.00350
  613.00000  0.00348
  614.00000  0.00347
  615.00000  0.00346
  616.00000  0.00341
  617.00000  0.00337
  618.00000  0.00332
  619.00000  0.00327
  620.00000  0.00323
  621.00000  0.00316
  622.00000  0.00309
  623.00000  0.00306
  624.00000  0.00304
  625.00000  0.00302
  626.00000  0.00293
  627.00000  0.00285
  628.00000  0.00284
  629.00000  0.00283
  630.00000  0.00282
  631.00000  0.00274
  632.00000  0.00265
  633.00000  0.00264
  634.00000  0.00263
  635.00000  0.00262
  636.00000  0.00255
  637.00000  0.00249
  638.00000  0.00247
  639.00000  0.00245
  640.00000  0.00243
  641.00000  0.00233
  642.00000  0.00225
  643.00000  0.00223
  644.00000  0.00221
  645.00000  0.00219
  646.00000  0.00212
  647.00000  0.00205
  648.00000  0.00203
  649.00000  0.00201
  650.00000  0.00198
  651.00000  0.00188
  652.00000  0.00178
  653.00000  0.00174
  654.00000  0.00170
  655.00000  0.00166
  656.00000  0.00157
  657.00000  0.00149
  658.00000  0.00145
  659.00000  0.00141
  660.00000  0.00138
  661.00000  0.00134
  662.00000  0.00130
  663.00000  0.00129
  664.00000  0.00128
  665.00000  0.00127
  666.00000  0.00125
  667.00000  0.00123
  668.00000  0.00122
  669.00000  0.00122
  670.00000  0.00121
  671.00000  0.00119
  672.00000  0.00117
  673.00000  0.00117
  674.00000  0.00117
  675.00000  0.00117
  676.00000  0.00114
  677.00000  0.00112
  678.00000  0.00111
  679.00000  0.00111
  680.00000  0.00110
  681.00000  0.00108
  682.00000  0.00106
  683.00000  0.00105
  684.00000  0.00104
  685.00000  0.00104
  686.00000  0.00101
  687.00000  0.00099
  688.00000  0.00098
  689.00000  0.00097
  690.00000  0.00096
  691.00000  0.00093
  692.00000  0.00091
  693.00000  0.00089
  694.00000  0.00088
  695.00000  0.00087
  696.00000  0.00084
  697.00000  0.00081
  698.00000  0.00079
  699.00000  0.00078
  700.00000  0.00076
  701.00000  0.00074
  702.00000  0.00071
  703.00000  0.00070
  704.00000  0.00068
  705.00000  0.00067
  706.00000  0.00064
  707.00000  0.00062
  708.00000  0.00060
  709.00000  0.00058
  710.00000  0.00056
  711.00000  0.00053
  712.00000  0.00051
  713.00000  0.00049
  714.00000  0.00047
  715.00000  0.00046
  716.00000  0.00043
  717.00000  0.00041
  718.00000  0.00040
  719.00000  0.00038
  720.00000  0.00037
  721.00000  0.00035
  722.00000  0.00034
  723.00000  0.00033
  724.00000  0.00032
  725.00000  0.00031
  726.00000  0.00029
  727.00000  0.00027
  728.00000  0.00026
  729.00000  0.00024
  730.00000  0.00023
  731.00000  0.00022
  732.00000  0.00020
  733.00000  0.00019
  734.00000  0.00018
  735.00000  0.00018
  736.00000  0.00017
  737.00000  0.00017
  738.00000  0.00017
  739.00000  0.00016
  740.00000  0.00016
  741.00000  0.00016
  742.00000  0.00016
  743.00000  0.00016
  744.00000  0.00016
  745.00000  0.00016
  746.00000  0.00015
  747.00000  0.00015
  748.00000  0.00015
  749.00000  0.00015
  750.00000  0.00015
  751.00000  0.00015
  752.00000  0.00015
  753.00000  0.00015
  754.00000  0.00015
  755.00000  0.00015
  756.00000  0.00015
  757.00000  0.00015
  758.00000  0.00015
  759.00000  0.00015
  760.00000  0.00015
  761.00000  0.00015
  762.00000  0.00015
  763.00000  0.00015
  764.00000  0.00015
  765.00000  0.00015
  766.00000  0.00015
  767.00000  0.00015
  768.00000  0.00015
  769.00000  0.00015
  770.00000  0.00015
  771.00000  0.00015
  772.00000  0.00015
  773.00000  0.00015
  774.00000  0.00015
  775.00000  0.00015
  776.00000  0.00015
  777.00000  0.00015
  778.00000  0.00015
  779.00000  0.00016
  780.00000  0.00016
  781.00000  0.00016
  782.00000  0.00016
  783.00000  0.00016
  784.00000  0.00016
  785.00000  0.00016
  786.00000  0.00016
  787.00000  0.00017
  788.00000  0.00017
  789.00000  0.00017
  790.00000  0.00017
  791.00000  0.00017
  792.00000  0.00017
  793.00000  0.00017
  794.00000  0.00017
  795.00000  0.00018
  796.00000  0.00018
  797.00000  0.00018
  798.00000  0.00018
  799.00000  0.00018
  800.00000  0.00018
  801.00000  0.00018
  802.00000  0.00018
  803.00000  0.00018
  804.00000  0.00019
  805.00000  0.00019
  806.00000  0.00019
  807.00000  0.00019
  808.00000  0.00019
  809.00000  0.00019
  810.00000  0.00019
  811.00000  0.00018
  812.00000  0.00018
  813.00000  0.00018
  814.00000  0.00018
  815.00000  0.00018
  816.00000  0.00018
  817.00000  0.00018
  818.00000  0.00017
  819.00000  0.00017
  820.00000  0.00017
  821.00000  0.00017
  822.00000  0.00016
  823.00000  0.00016
  824.00000  0.00016
  825.00000  0.00015
  826.00000  0.00014
  827.00000  0.00014
  828.00000  0.00014
  829.00000  0.00013
  830.00000  0.00012
  831.00000  0.00012
  832.00000  0.00011
  833.00000  0.00011
  834.00000  0.00011
  835.00000  0.00011
  836.00000  0.00010
  837.00000  0.00010
  838.00000  0.00010
  839.00000  0.00010
  840.00000  0.00010
  841.00000  0.00010
  842.00000  0.00010
  843.00000  0.00010
  844.00000  0.00010
  845.00000  0.00010
  846.00000  0.00009
  847.00000  0.00009
  848.00000  0.00009
  849.00000  0.00009
  850.00000  0.00009
  851.00000  0.00009
  852.00000  0.00009
  853.00000  0.00009
  854.00000  0.00009
  855.00000  0.00009
  856.00000  0.00009
  857.00000  0.00009
  858.00000  0.00009
  859.00000  0.00009
  860.00000  0.00009
  861.00000  0.00009
  862.00000  0.00008
  863.00000  0.00008
  864.00000  0.00008
  865.00000  0.00008
  866.00000  0.00008
  867.00000  0.00008
  868.00000  0.00008
  869.00000  0.00008
  870.00000  0.00008
  871.00000  0.00008
  872.00000  0.00008
  873.00000  0.00008
  874.00000  0.00008
  875.00000  0.00007
  876.00000  0.00007
  877.00000  0.00007
  878.00000  0.00007
  879.00000  0.00007
  880.00000  0.00007
  881.00000  0.00007
  882.00000  0.00007
  883.00000  0.00007
  884.00000  0.00007
  885.00000  0.00007
  886.00000  0.00007
  887.00000  0.00007
  888.00000  0.00006
  889.00000  0.00006
  890.00000  0.00006
  891.00000  0.00006
  892.00000  0.00006
  893.00000  0.00006
  894.00000  0.00006
  895.00000  0.00006
  896.00000  0.00006
  897.00000  0.00006
  898.00000  0.00006
  899.00000  0.00006
  900.00000  0.00006
